NPP VIIRS Band Averaged Relative Spectral Response from Northrop Grumman October 2011 release to govt team.
    WL(um)      RSR
   10.0830    0.005010
   10.0840    0.005056
   10.0850    0.005102
   10.0860    0.005148
   10.0870    0.005195
   10.0880    0.005243
   10.0890    0.005292
   10.0900    0.005341
   10.0910    0.005391
   10.0920    0.005441
   10.0930    0.005491
   10.0940    0.005541
   10.0950    0.005591
   10.0960    0.005641
   10.0970    0.005692
   10.0980    0.005742
   10.0990    0.005792
   10.1000    0.005843
   10.1010    0.005893
   10.1020    0.005944
   10.1030    0.005994
   10.1040    0.006045
   10.1050    0.006096
   10.1060    0.006147
   10.1070    0.006198
   10.1080    0.006249
   10.1090    0.006300
   10.1100    0.006351
   10.1110    0.006402
   10.1120    0.006453
   10.1130    0.006504
   10.1140    0.006555
   10.1150    0.006605
   10.1160    0.006656
   10.1170    0.006707
   10.1180    0.006758
   10.1190    0.006809
   10.1200    0.006860
   10.1210    0.006911
   10.1220    0.006962
   10.1230    0.007013
   10.1240    0.007064
   10.1250    0.007115
   10.1260    0.007165
   10.1270    0.007216
   10.1280    0.007268
   10.1290    0.007325
   10.1300    0.007381
   10.1310    0.007439
   10.1320    0.007497
   10.1330    0.007556
   10.1340    0.007616
   10.1350    0.007676
   10.1360    0.007737
   10.1370    0.007798
   10.1380    0.007858
   10.1390    0.007918
   10.1400    0.007979
   10.1410    0.008040
   10.1420    0.008100
   10.1430    0.008159
   10.1440    0.008219
   10.1450    0.008279
   10.1460    0.008339
   10.1470    0.008399
   10.1480    0.008459
   10.1490    0.008519
   10.1500    0.008579
   10.1510    0.008639
   10.1520    0.008698
   10.1530    0.008759
   10.1540    0.008820
   10.1550    0.008879
   10.1560    0.008934
   10.1570    0.008990
   10.1580    0.009046
   10.1590    0.009102
   10.1600    0.009158
   10.1610    0.009213
   10.1620    0.009273
   10.1630    0.009343
   10.1640    0.009425
   10.1650    0.009510
   10.1660    0.009597
   10.1670    0.009690
   10.1680    0.009785
   10.1690    0.009883
   10.1700    0.009981
   10.1710    0.010078
   10.1720    0.010179
   10.1730    0.010281
   10.1740    0.010383
   10.1750    0.010485
   10.1760    0.010587
   10.1770    0.010689
   10.1780    0.010793
   10.1790    0.010899
   10.1800    0.011005
   10.1810    0.011111
   10.1820    0.011217
   10.1830    0.011327
   10.1840    0.011437
   10.1850    0.011547
   10.1860    0.011658
   10.1870    0.011768
   10.1880    0.011878
   10.1890    0.011988
   10.1900    0.012099
   10.1910    0.012209
   10.1920    0.012319
   10.1930    0.012430
   10.1940    0.012540
   10.1950    0.012650
   10.1960    0.012761
   10.1970    0.012871
   10.1980    0.012981
   10.1990    0.013092
   10.2000    0.013202
   10.2010    0.013312
   10.2020    0.013423
   10.2030    0.013533
   10.2040    0.013643
   10.2050    0.013754
   10.2060    0.013864
   10.2070    0.013974
   10.2080    0.014085
   10.2090    0.014195
   10.2100    0.014305
   10.2110    0.014416
   10.2120    0.014526
   10.2130    0.014636
   10.2140    0.014747
   10.2150    0.014857
   10.2160    0.014967
   10.2170    0.015078
   10.2180    0.015188
   10.2190    0.015298
   10.2200    0.015411
   10.2210    0.015527
   10.2220    0.015643
   10.2230    0.015758
   10.2240    0.015874
   10.2250    0.015990
   10.2260    0.016105
   10.2270    0.016221
   10.2280    0.016337
   10.2290    0.016452
   10.2300    0.016568
   10.2310    0.016684
   10.2320    0.016800
   10.2330    0.016915
   10.2340    0.017031
   10.2350    0.017147
   10.2360    0.017262
   10.2370    0.017378
   10.2380    0.017494
   10.2390    0.017609
   10.2400    0.017725
   10.2410    0.017841
   10.2420    0.017963
   10.2430    0.018107
   10.2440    0.018283
   10.2450    0.018467
   10.2460    0.018658
   10.2470    0.018863
   10.2480    0.019075
   10.2490    0.019308
   10.2500    0.019550
   10.2510    0.019796
   10.2520    0.020050
   10.2530    0.020309
   10.2540    0.020572
   10.2550    0.020835
   10.2560    0.021098
   10.2570    0.021365
   10.2580    0.021637
   10.2590    0.021914
   10.2600    0.022191
   10.2610    0.022467
   10.2620    0.022744
   10.2630    0.023028
   10.2640    0.023313
   10.2650    0.023599
   10.2660    0.023885
   10.2670    0.024171
   10.2680    0.024460
   10.2690    0.024750
   10.2700    0.025042
   10.2710    0.025338
   10.2720    0.025634
   10.2730    0.025931
   10.2740    0.026227
   10.2750    0.026523
   10.2760    0.026819
   10.2770    0.027116
   10.2780    0.027412
   10.2790    0.027708
   10.2800    0.028005
   10.2810    0.028301
   10.2820    0.028597
   10.2830    0.028893
   10.2840    0.029190
   10.2850    0.029486
   10.2860    0.029782
   10.2870    0.030078
   10.2880    0.030375
   10.2890    0.030671
   10.2900    0.030967
   10.2910    0.031263
   10.2920    0.031560
   10.2930    0.031856
   10.2940    0.032152
   10.2950    0.032448
   10.2960    0.032745
   10.2970    0.033044
   10.2980    0.033345
   10.2990    0.033645
   10.3000    0.033951
   10.3010    0.034262
   10.3020    0.034572
   10.3030    0.034883
   10.3040    0.035194
   10.3050    0.035504
   10.3060    0.035815
   10.3070    0.036126
   10.3080    0.036436
   10.3090    0.036747
   10.3100    0.037058
   10.3110    0.037368
   10.3120    0.037679
   10.3130    0.037990
   10.3140    0.038300
   10.3150    0.038611
   10.3160    0.038922
   10.3170    0.039232
   10.3180    0.039543
   10.3190    0.039854
   10.3200    0.040165
   10.3210    0.040475
   10.3220    0.040803
   10.3230    0.041190
   10.3240    0.041655
   10.3250    0.042140
   10.3260    0.042647
   10.3270    0.043189
   10.3280    0.043745
   10.3290    0.044362
   10.3300    0.045003
   10.3310    0.045657
   10.3320    0.046330
   10.3330    0.047017
   10.3340    0.047711
   10.3350    0.048406
   10.3360    0.049101
   10.3370    0.049806
   10.3380    0.050523
   10.3390    0.051249
   10.3400    0.051975
   10.3410    0.052701
   10.3420    0.053427
   10.3430    0.054169
   10.3440    0.054915
   10.3450    0.055662
   10.3460    0.056408
   10.3470    0.057155
   10.3480    0.057912
   10.3490    0.058670
   10.3500    0.059432
   10.3510    0.060202
   10.3520    0.060972
   10.3530    0.061742
   10.3540    0.062511
   10.3550    0.063281
   10.3560    0.064051
   10.3570    0.064821
   10.3580    0.065590
   10.3590    0.066360
   10.3600    0.067130
   10.3610    0.067900
   10.3620    0.068669
   10.3630    0.069439
   10.3640    0.070209
   10.3650    0.070979
   10.3660    0.071748
   10.3670    0.072518
   10.3680    0.073288
   10.3690    0.074058
   10.3700    0.074827
   10.3710    0.075597
   10.3720    0.076367
   10.3730    0.077137
   10.3740    0.077906
   10.3750    0.078676
   10.3760    0.079446
   10.3770    0.080224
   10.3780    0.081007
   10.3790    0.081790
   10.3800    0.082585
   10.3810    0.083388
   10.3820    0.084192
   10.3830    0.084995
   10.3840    0.085799
   10.3850    0.086602
   10.3860    0.087405
   10.3870    0.088209
   10.3880    0.089012
   10.3890    0.089816
   10.3900    0.090619
   10.3910    0.091423
   10.3920    0.092226
   10.3930    0.093030
   10.3940    0.093833
   10.3950    0.094636
   10.3960    0.095440
   10.3970    0.096243
   10.3980    0.097047
   10.3990    0.097850
   10.4000    0.098654
   10.4010    0.099457
   10.4020    0.100301
   10.4030    0.101277
   10.4040    0.102435
   10.4050    0.103641
   10.4060    0.104901
   10.4070    0.106243
   10.4080    0.107620
   10.4090    0.109164
   10.4100    0.110776
   10.4110    0.112422
   10.4120    0.114117
   10.4130    0.115848
   10.4140    0.117603
   10.4150    0.119357
   10.4160    0.121112
   10.4170    0.122893
   10.4180    0.124703
   10.4190    0.126533
   10.4200    0.128363
   10.4210    0.130193
   10.4220    0.132023
   10.4230    0.133887
   10.4240    0.135761
   10.4250    0.137635
   10.4260    0.139508
   10.4270    0.141382
   10.4280    0.143286
   10.4290    0.145193
   10.4300    0.147112
   10.4310    0.149053
   10.4320    0.150994
   10.4330    0.152935
   10.4340    0.154876
   10.4350    0.156818
   10.4360    0.158759
   10.4370    0.160700
   10.4380    0.162641
   10.4390    0.164582
   10.4400    0.166523
   10.4410    0.168465
   10.4420    0.170406
   10.4430    0.172347
   10.4440    0.174288
   10.4450    0.176229
   10.4460    0.178170
   10.4470    0.180111
   10.4480    0.182053
   10.4490    0.183994
   10.4500    0.185935
   10.4510    0.187876
   10.4520    0.189817
   10.4530    0.191758
   10.4540    0.193700
   10.4550    0.195641
   10.4560    0.197582
   10.4570    0.199546
   10.4580    0.201521
   10.4590    0.203496
   10.4600    0.205495
   10.4610    0.207516
   10.4620    0.209537
   10.4630    0.211558
   10.4640    0.213578
   10.4650    0.215599
   10.4660    0.217620
   10.4670    0.219640
   10.4680    0.221661
   10.4690    0.223682
   10.4700    0.225702
   10.4710    0.227723
   10.4720    0.229744
   10.4730    0.231765
   10.4740    0.233785
   10.4750    0.235806
   10.4760    0.237827
   10.4770    0.239847
   10.4780    0.241868
   10.4790    0.243889
   10.4800    0.245909
   10.4810    0.247930
   10.4820    0.249983
   10.4830    0.252134
   10.4840    0.254420
   10.4850    0.256754
   10.4860    0.259158
   10.4870    0.261636
   10.4880    0.264150
   10.4890    0.266909
   10.4900    0.269776
   10.4910    0.272698
   10.4920    0.275673
   10.4930    0.278692
   10.4940    0.281749
   10.4950    0.284807
   10.4960    0.287864
   10.4970    0.290964
   10.4980    0.294089
   10.4990    0.297229
   10.5000    0.300368
   10.5010    0.303508
   10.5020    0.306648
   10.5030    0.309810
   10.5040    0.312979
   10.5050    0.316148
   10.5060    0.319317
   10.5070    0.322486
   10.5080    0.325702
   10.5090    0.328923
   10.5100    0.332163
   10.5110    0.335437
   10.5120    0.338711
   10.5130    0.341985
   10.5140    0.345260
   10.5150    0.348534
   10.5160    0.351808
   10.5170    0.355083
   10.5180    0.358357
   10.5190    0.361631
   10.5200    0.364906
   10.5210    0.368180
   10.5220    0.371454
   10.5230    0.374728
   10.5240    0.378003
   10.5250    0.381277
   10.5260    0.384551
   10.5270    0.387826
   10.5280    0.391100
   10.5290    0.394374
   10.5300    0.397649
   10.5310    0.400923
   10.5320    0.404197
   10.5330    0.407471
   10.5340    0.410746
   10.5350    0.414021
   10.5360    0.417295
   10.5370    0.420606
   10.5380    0.423934
   10.5390    0.427262
   10.5400    0.430604
   10.5410    0.433959
   10.5420    0.437313
   10.5430    0.440668
   10.5440    0.444022
   10.5450    0.447377
   10.5460    0.450731
   10.5470    0.454086
   10.5480    0.457440
   10.5490    0.460795
   10.5500    0.464149
   10.5510    0.467504
   10.5520    0.470858
   10.5530    0.474212
   10.5540    0.477567
   10.5550    0.480921
   10.5560    0.484276
   10.5570    0.487630
   10.5580    0.490985
   10.5590    0.494339
   10.5600    0.497694
   10.5610    0.501048
   10.5620    0.504388
   10.5630    0.507683
   10.5640    0.510908
   10.5650    0.514127
   10.5660    0.517359
   10.5670    0.520580
   10.5680    0.523801
   10.5690    0.527098
   10.5700    0.530435
   10.5710    0.533795
   10.5720    0.537158
   10.5730    0.540532
   10.5740    0.543922
   10.5750    0.547312
   10.5760    0.550702
   10.5770    0.554112
   10.5780    0.557517
   10.5790    0.560914
   10.5800    0.564312
   10.5810    0.567709
   10.5820    0.571106
   10.5830    0.574490
   10.5840    0.577869
   10.5850    0.581249
   10.5860    0.584628
   10.5870    0.588006
   10.5880    0.591405
   10.5890    0.594805
   10.5900    0.598213
   10.5910    0.601634
   10.5920    0.605056
   10.5930    0.608477
   10.5940    0.611899
   10.5950    0.615321
   10.5960    0.618742
   10.5970    0.622164
   10.5980    0.625586
   10.5990    0.629007
   10.6000    0.632429
   10.6010    0.635850
   10.6020    0.639272
   10.6030    0.642694
   10.6040    0.646115
   10.6050    0.649537
   10.6060    0.652959
   10.6070    0.656380
   10.6080    0.659802
   10.6090    0.663224
   10.6100    0.666645
   10.6110    0.670067
   10.6120    0.673488
   10.6130    0.676910
   10.6140    0.680332
   10.6150    0.683753
   10.6160    0.687175
   10.6170    0.690608
   10.6180    0.694048
   10.6190    0.697487
   10.6200    0.700914
   10.6210    0.704331
   10.6220    0.707747
   10.6230    0.711164
   10.6240    0.714580
   10.6250    0.717996
   10.6260    0.721413
   10.6270    0.724829
   10.6280    0.728246
   10.6290    0.731662
   10.6300    0.735079
   10.6310    0.738495
   10.6320    0.741911
   10.6330    0.745328
   10.6340    0.748745
   10.6350    0.752162
   10.6360    0.755578
   10.6370    0.758995
   10.6380    0.762411
   10.6390    0.765827
   10.6400    0.769244
   10.6410    0.772660
   10.6420    0.776040
   10.6430    0.779306
   10.6440    0.782414
   10.6450    0.785467
   10.6460    0.788444
   10.6470    0.791338
   10.6480    0.794191
   10.6490    0.796785
   10.6500    0.799271
   10.6510    0.801705
   10.6520    0.804082
   10.6530    0.806412
   10.6540    0.808706
   10.6550    0.810999
   10.6560    0.813293
   10.6570    0.815543
   10.6580    0.817762
   10.6590    0.819959
   10.6600    0.822157
   10.6610    0.824355
   10.6620    0.826553
   10.6630    0.828716
   10.6640    0.830870
   10.6650    0.833024
   10.6660    0.835178
   10.6670    0.837331
   10.6680    0.839434
   10.6690    0.841530
   10.6700    0.843607
   10.6710    0.845648
   10.6720    0.847688
   10.6730    0.849728
   10.6740    0.851768
   10.6750    0.853809
   10.6760    0.855849
   10.6770    0.857889
   10.6780    0.859929
   10.6790    0.861970
   10.6800    0.864010
   10.6810    0.866050
   10.6820    0.868091
   10.6830    0.870131
   10.6840    0.872171
   10.6850    0.874211
   10.6860    0.876252
   10.6870    0.878292
   10.6880    0.880332
   10.6890    0.882373
   10.6900    0.884413
   10.6910    0.886453
   10.6920    0.888493
   10.6930    0.890534
   10.6940    0.892574
   10.6950    0.894614
   10.6960    0.896655
   10.6970    0.898654
   10.6980    0.900633
   10.6990    0.902613
   10.7000    0.904568
   10.7010    0.906503
   10.7020    0.908437
   10.7030    0.910371
   10.7040    0.912305
   10.7050    0.914240
   10.7060    0.916175
   10.7070    0.918109
   10.7080    0.920044
   10.7090    0.921978
   10.7100    0.923912
   10.7110    0.925846
   10.7120    0.927781
   10.7130    0.929715
   10.7140    0.931649
   10.7150    0.933584
   10.7160    0.935518
   10.7170    0.937452
   10.7180    0.939386
   10.7190    0.941321
   10.7200    0.943255
   10.7210    0.945189
   10.7220    0.947085
   10.7230    0.948851
   10.7240    0.950441
   10.7250    0.951978
   10.7260    0.953449
   10.7270    0.954826
   10.7280    0.956162
   10.7290    0.957269
   10.7300    0.958278
   10.7310    0.959232
   10.7320    0.960124
   10.7330    0.960966
   10.7340    0.961768
   10.7350    0.962571
   10.7360    0.963374
   10.7370    0.964130
   10.7380    0.964854
   10.7390    0.965555
   10.7400    0.966256
   10.7410    0.966956
   10.7420    0.967657
   10.7430    0.968323
   10.7440    0.968978
   10.7450    0.969633
   10.7460    0.970288
   10.7470    0.970944
   10.7480    0.971549
   10.7490    0.972147
   10.7500    0.972728
   10.7510    0.973272
   10.7520    0.973816
   10.7530    0.974360
   10.7540    0.974905
   10.7550    0.975449
   10.7560    0.975993
   10.7570    0.976537
   10.7580    0.977082
   10.7590    0.977626
   10.7600    0.978170
   10.7610    0.978714
   10.7620    0.979258
   10.7630    0.979803
   10.7640    0.980347
   10.7650    0.980891
   10.7660    0.981435
   10.7670    0.981980
   10.7680    0.982524
   10.7690    0.983068
   10.7700    0.983612
   10.7710    0.984157
   10.7720    0.984701
   10.7730    0.985245
   10.7740    0.985789
   10.7750    0.986333
   10.7760    0.986878
   10.7770    0.987386
   10.7780    0.987876
   10.7790    0.988366
   10.7800    0.988833
   10.7810    0.989281
   10.7820    0.989728
   10.7830    0.990175
   10.7840    0.990622
   10.7850    0.991070
   10.7860    0.991517
   10.7870    0.991964
   10.7880    0.992412
   10.7890    0.992859
   10.7900    0.993306
   10.7910    0.993753
   10.7920    0.994201
   10.7930    0.994648
   10.7940    0.995095
   10.7950    0.995543
   10.7960    0.995990
   10.7970    0.996437
   10.7980    0.996884
   10.7990    0.997332
   10.8000    0.997779
   10.8010    0.998226
   10.8020    0.998652
   10.8030    0.999011
   10.8040    0.999284
   10.8050    0.999525
   10.8060    0.999726
   10.8070    0.999875
   10.8080    1.000000
   10.8090    0.999977
   10.8100    0.999888
   10.8110    0.999760
   10.8120    0.999599
   10.8130    0.999408
   10.8140    0.999191
   10.8150    0.998975
   10.8160    0.998758
   10.8170    0.998516
   10.8180    0.998259
   10.8190    0.997994
   10.8200    0.997730
   10.8210    0.997465
   10.8220    0.997200
   10.8230    0.996921
   10.8240    0.996639
   10.8250    0.996357
   10.8260    0.996075
   10.8270    0.995793
   10.8280    0.995485
   10.8290    0.995174
   10.8300    0.994852
   10.8310    0.994509
   10.8320    0.994166
   10.8330    0.993823
   10.8340    0.993480
   10.8350    0.993138
   10.8360    0.992795
   10.8370    0.992452
   10.8380    0.992109
   10.8390    0.991766
   10.8400    0.991423
   10.8410    0.991080
   10.8420    0.990737
   10.8430    0.990395
   10.8440    0.990052
   10.8450    0.989709
   10.8460    0.989366
   10.8470    0.989023
   10.8480    0.988680
   10.8490    0.988337
   10.8500    0.987994
   10.8510    0.987652
   10.8520    0.987309
   10.8530    0.986966
   10.8540    0.986623
   10.8550    0.986280
   10.8560    0.985937
   10.8570    0.985576
   10.8580    0.985206
   10.8590    0.984835
   10.8600    0.984458
   10.8610    0.984074
   10.8620    0.983691
   10.8630    0.983307
   10.8640    0.982924
   10.8650    0.982540
   10.8660    0.982157
   10.8670    0.981773
   10.8680    0.981390
   10.8690    0.981006
   10.8700    0.980623
   10.8710    0.980239
   10.8720    0.979856
   10.8730    0.979472
   10.8740    0.979089
   10.8750    0.978705
   10.8760    0.978322
   10.8770    0.977938
   10.8780    0.977555
   10.8790    0.977171
   10.8800    0.976788
   10.8810    0.976404
   10.8820    0.976010
   10.8830    0.975579
   10.8840    0.975102
   10.8850    0.974611
   10.8860    0.974105
   10.8870    0.973578
   10.8880    0.973042
   10.8890    0.972449
   10.8900    0.971833
   10.8910    0.971204
   10.8920    0.970564
   10.8930    0.969914
   10.8940    0.969256
   10.8950    0.968598
   10.8960    0.967940
   10.8970    0.967275
   10.8980    0.966607
   10.8990    0.965936
   10.9000    0.965265
   10.9010    0.964594
   10.9020    0.963923
   10.9030    0.963250
   10.9040    0.962576
   10.9050    0.961902
   10.9060    0.961228
   10.9070    0.960554
   10.9080    0.959877
   10.9090    0.959199
   10.9100    0.958519
   10.9110    0.957835
   10.9120    0.957151
   10.9130    0.956466
   10.9140    0.955782
   10.9150    0.955098
   10.9160    0.954413
   10.9170    0.953729
   10.9180    0.953045
   10.9190    0.952360
   10.9200    0.951676
   10.9210    0.950992
   10.9220    0.950308
   10.9230    0.949623
   10.9240    0.948939
   10.9250    0.948255
   10.9260    0.947570
   10.9270    0.946886
   10.9280    0.946202
   10.9290    0.945517
   10.9300    0.944833
   10.9310    0.944149
   10.9320    0.943464
   10.9330    0.942780
   10.9340    0.942096
   10.9350    0.941412
   10.9360    0.940727
   10.9370    0.940039
   10.9380    0.939349
   10.9390    0.938660
   10.9400    0.937968
   10.9410    0.937276
   10.9420    0.936583
   10.9430    0.935891
   10.9440    0.935199
   10.9450    0.934506
   10.9460    0.933814
