NPP VIIRS Band Averaged Relative Spectral Response from Northrop Grumman October 2011 release to govt team.
    WL(um)      RSR
   11.0320    0.005065
   11.0330    0.005169
   11.0340    0.005275
   11.0350    0.005385
   11.0360    0.005495
   11.0370    0.005605
   11.0380    0.005715
   11.0390    0.005832
   11.0400    0.005949
   11.0410    0.006067
   11.0420    0.006184
   11.0430    0.006302
   11.0440    0.006419
   11.0450    0.006536
   11.0460    0.006656
   11.0470    0.006781
   11.0480    0.006906
   11.0490    0.007032
   11.0500    0.007157
   11.0510    0.007283
   11.0520    0.007408
   11.0530    0.007534
   11.0540    0.007659
   11.0550    0.007784
   11.0560    0.007910
   11.0570    0.008035
   11.0580    0.008161
   11.0590    0.008286
   11.0600    0.008412
   11.0610    0.008537
   11.0620    0.008662
   11.0630    0.008788
   11.0640    0.008913
   11.0650    0.009039
   11.0660    0.009164
   11.0670    0.009290
   11.0680    0.009415
   11.0690    0.009540
   11.0700    0.009666
   11.0710    0.009791
   11.0720    0.009917
   11.0730    0.010042
   11.0740    0.010168
   11.0750    0.010293
   11.0760    0.010418
   11.0770    0.010544
   11.0780    0.010669
   11.0790    0.010795
   11.0800    0.010920
   11.0810    0.011046
   11.0820    0.011171
   11.0830    0.011296
   11.0840    0.011422
   11.0850    0.011547
   11.0860    0.011673
   11.0870    0.011798
   11.0880    0.011924
   11.0890    0.012049
   11.0900    0.012174
   11.0910    0.012300
   11.0920    0.012425
   11.0930    0.012551
   11.0940    0.012676
   11.0950    0.012802
   11.0960    0.012927
   11.0970    0.013053
   11.0980    0.013178
   11.0990    0.013303
   11.1000    0.013429
   11.1010    0.013554
   11.1020    0.013680
   11.1030    0.013805
   11.1040    0.013931
   11.1050    0.014056
   11.1060    0.014181
   11.1070    0.014307
   11.1080    0.014432
   11.1090    0.014558
   11.1100    0.014683
   11.1110    0.014809
   11.1120    0.014934
   11.1130    0.015059
   11.1140    0.015185
   11.1150    0.015310
   11.1160    0.015436
   11.1170    0.015561
   11.1180    0.015687
   11.1190    0.015812
   11.1200    0.015937
   11.1210    0.016063
   11.1220    0.016188
   11.1230    0.016314
   11.1240    0.016439
   11.1250    0.016565
   11.1260    0.016690
   11.1270    0.016815
   11.1280    0.016941
   11.1290    0.017066
   11.1300    0.017192
   11.1310    0.017317
   11.1320    0.017443
   11.1330    0.017568
   11.1340    0.017693
   11.1350    0.017819
   11.1360    0.017944
   11.1370    0.018070
   11.1380    0.018195
   11.1390    0.018321
   11.1400    0.018446
   11.1410    0.018572
   11.1420    0.018697
   11.1430    0.018822
   11.1440    0.018948
   11.1450    0.019073
   11.1460    0.019199
   11.1470    0.019324
   11.1480    0.019450
   11.1490    0.019575
   11.1500    0.019720
   11.1510    0.019921
   11.1520    0.020147
   11.1530    0.020383
   11.1540    0.020629
   11.1550    0.020903
   11.1560    0.021208
   11.1570    0.021530
   11.1580    0.021857
   11.1590    0.022185
   11.1600    0.022523
   11.1610    0.022876
   11.1620    0.023252
   11.1630    0.023639
   11.1640    0.024033
   11.1650    0.024441
   11.1660    0.024849
   11.1670    0.025257
   11.1680    0.025665
   11.1690    0.026093
   11.1700    0.026521
   11.1710    0.026950
   11.1720    0.027379
   11.1730    0.027807
   11.1740    0.028236
   11.1750    0.028664
   11.1760    0.029098
   11.1770    0.029550
   11.1780    0.030003
   11.1790    0.030455
   11.1800    0.030907
   11.1810    0.031359
   11.1820    0.031812
   11.1830    0.032264
   11.1840    0.032716
   11.1850    0.033168
   11.1860    0.033621
   11.1870    0.034073
   11.1880    0.034525
   11.1890    0.034977
   11.1900    0.035430
   11.1910    0.035882
   11.1920    0.036334
   11.1930    0.036787
   11.1940    0.037239
   11.1950    0.037691
   11.1960    0.038143
   11.1970    0.038596
   11.1980    0.039048
   11.1990    0.039500
   11.2000    0.039952
   11.2010    0.040405
   11.2020    0.040857
   11.2030    0.041309
   11.2040    0.041761
   11.2050    0.042214
   11.2060    0.042666
   11.2070    0.043118
   11.2080    0.043571
   11.2090    0.044023
   11.2100    0.044475
   11.2110    0.044927
   11.2120    0.045380
   11.2130    0.045832
   11.2140    0.046284
   11.2150    0.046779
   11.2160    0.047396
   11.2170    0.048068
   11.2180    0.048761
   11.2190    0.049476
   11.2200    0.050250
   11.2210    0.051093
   11.2220    0.051971
   11.2230    0.052860
   11.2240    0.053750
   11.2250    0.054666
   11.2260    0.055611
   11.2270    0.056611
   11.2280    0.057634
   11.2290    0.058672
   11.2300    0.059742
   11.2310    0.060813
   11.2320    0.061883
   11.2330    0.062954
   11.2340    0.064068
   11.2350    0.065184
   11.2360    0.066300
   11.2370    0.067416
   11.2380    0.068531
   11.2390    0.069647
   11.2400    0.070763
   11.2410    0.071890
   11.2420    0.073058
   11.2430    0.074226
   11.2440    0.075394
   11.2450    0.076563
   11.2460    0.077731
   11.2470    0.078899
   11.2480    0.080067
   11.2490    0.081235
   11.2500    0.082403
   11.2510    0.083571
   11.2520    0.084739
   11.2530    0.085907
   11.2540    0.087076
   11.2550    0.088244
   11.2560    0.089412
   11.2570    0.090580
   11.2580    0.091748
   11.2590    0.092916
   11.2600    0.094084
   11.2610    0.095252
   11.2620    0.096421
   11.2630    0.097589
   11.2640    0.098757
   11.2650    0.099925
   11.2660    0.101093
   11.2670    0.102261
   11.2680    0.103429
   11.2690    0.104597
   11.2700    0.105765
   11.2710    0.106934
   11.2720    0.108102
   11.2730    0.109270
   11.2740    0.110438
   11.2750    0.111606
   11.2760    0.112774
   11.2770    0.113942
   11.2780    0.115110
   11.2790    0.116278
   11.2800    0.117531
   11.2810    0.119024
   11.2820    0.120628
   11.2830    0.122273
   11.2840    0.123961
   11.2850    0.125767
   11.2860    0.127711
   11.2870    0.129727
   11.2880    0.131766
   11.2890    0.133806
   11.2900    0.135895
   11.2910    0.138043
   11.2920    0.140296
   11.2930    0.142595
   11.2940    0.144925
   11.2950    0.147319
   11.2960    0.149712
   11.2970    0.152106
   11.2980    0.154500
   11.2990    0.156982
   11.3000    0.159467
   11.3010    0.161953
   11.3020    0.164438
   11.3030    0.166924
   11.3040    0.169409
   11.3050    0.171894
   11.3060    0.174401
   11.3070    0.176990
   11.3080    0.179579
   11.3090    0.182168
   11.3100    0.184757
   11.3110    0.187346
   11.3120    0.189935
   11.3130    0.192524
   11.3140    0.195113
   11.3150    0.197702
   11.3160    0.200291
   11.3170    0.202880
   11.3180    0.205469
   11.3190    0.208058
   11.3200    0.210647
   11.3210    0.213236
   11.3220    0.215825
   11.3230    0.218414
   11.3240    0.221003
   11.3250    0.223592
   11.3260    0.226181
   11.3270    0.228770
   11.3280    0.231359
   11.3290    0.233949
   11.3300    0.236538
   11.3310    0.239127
   11.3320    0.241716
   11.3330    0.244305
   11.3340    0.246894
   11.3350    0.249483
   11.3360    0.252072
   11.3370    0.254661
   11.3380    0.257250
   11.3390    0.259839
   11.3400    0.262428
   11.3410    0.265017
   11.3420    0.267606
   11.3430    0.270195
   11.3440    0.272784
   11.3450    0.275453
   11.3460    0.278311
   11.3470    0.281265
   11.3480    0.284258
   11.3490    0.287294
   11.3500    0.290424
   11.3510    0.293670
   11.3520    0.296983
   11.3530    0.300320
   11.3540    0.303656
   11.3550    0.307039
   11.3560    0.310477
   11.3570    0.314003
   11.3580    0.317563
   11.3590    0.321144
   11.3600    0.324767
   11.3610    0.328391
   11.3620    0.332015
   11.3630    0.335638
   11.3640    0.339340
   11.3650    0.343045
   11.3660    0.346750
   11.3670    0.350455
   11.3680    0.354159
   11.3690    0.357864
   11.3700    0.361569
   11.3710    0.365287
   11.3720    0.369052
   11.3730    0.372817
   11.3740    0.376582
   11.3750    0.380347
   11.3760    0.384112
   11.3770    0.387877
   11.3780    0.391643
   11.3790    0.395408
   11.3800    0.399173
   11.3810    0.402938
   11.3820    0.406703
   11.3830    0.410468
   11.3840    0.414233
   11.3850    0.417998
   11.3860    0.421763
   11.3870    0.425529
   11.3880    0.429294
   11.3890    0.433059
   11.3900    0.436824
   11.3910    0.440589
   11.3920    0.444354
   11.3930    0.448119
   11.3940    0.451884
   11.3950    0.455649
   11.3960    0.459414
   11.3970    0.463179
   11.3980    0.466944
   11.3990    0.470709
   11.4000    0.474474
   11.4010    0.478239
   11.4020    0.482004
   11.4030    0.485769
   11.4040    0.489534
   11.4050    0.493299
   11.4060    0.497065
   11.4070    0.500831
   11.4080    0.504596
   11.4090    0.508361
   11.4100    0.512099
   11.4110    0.515781
   11.4120    0.519433
   11.4130    0.523073
   11.4140    0.526700
   11.4150    0.530301
   11.4160    0.533865
   11.4170    0.537410
   11.4180    0.540949
   11.4190    0.544487
   11.4200    0.548011
   11.4210    0.551517
   11.4220    0.554990
   11.4230    0.558452
   11.4240    0.561904
   11.4250    0.565337
   11.4260    0.568769
   11.4270    0.572202
   11.4280    0.575634
   11.4290    0.579030
   11.4300    0.582424
   11.4310    0.585819
   11.4320    0.589213
   11.4330    0.592608
   11.4340    0.596002
   11.4350    0.599396
   11.4360    0.602782
   11.4370    0.606133
   11.4380    0.609484
   11.4390    0.612837
   11.4400    0.616188
   11.4410    0.619540
   11.4420    0.622891
   11.4430    0.626242
   11.4440    0.629594
   11.4450    0.632945
   11.4460    0.636296
   11.4470    0.639648
   11.4480    0.642999
   11.4490    0.646350
   11.4500    0.649702
   11.4510    0.653053
   11.4520    0.656404
   11.4530    0.659756
   11.4540    0.663107
   11.4550    0.666459
   11.4560    0.669810
   11.4570    0.673161
   11.4580    0.676513
   11.4590    0.679864
   11.4600    0.683215
   11.4610    0.686567
   11.4620    0.689918
   11.4630    0.693269
   11.4640    0.696621
   11.4650    0.699972
   11.4660    0.703323
   11.4670    0.706675
   11.4680    0.710026
   11.4690    0.713378
   11.4700    0.716729
   11.4710    0.720080
   11.4720    0.723432
   11.4730    0.726784
   11.4740    0.730135
   11.4750    0.733378
   11.4760    0.736320
   11.4770    0.739120
   11.4780    0.741867
   11.4790    0.744555
   11.4800    0.747099
   11.4810    0.749474
   11.4820    0.751758
   11.4830    0.754013
   11.4840    0.756267
   11.4850    0.758461
   11.4860    0.760582
   11.4870    0.762579
   11.4880    0.764523
   11.4890    0.766433
   11.4900    0.768271
   11.4910    0.770109
   11.4920    0.771947
   11.4930    0.773786
   11.4940    0.775515
   11.4950    0.777240
   11.4960    0.778966
   11.4970    0.780691
   11.4980    0.782417
   11.4990    0.784143
   11.5000    0.785868
   11.5010    0.787569
   11.5020    0.789178
   11.5030    0.790787
   11.5040    0.792396
   11.5050    0.794005
   11.5060    0.795613
   11.5070    0.797222
   11.5080    0.798831
   11.5090    0.800440
   11.5100    0.802049
   11.5110    0.803658
   11.5120    0.805267
   11.5130    0.806875
   11.5140    0.808484
   11.5150    0.810093
   11.5160    0.811702
   11.5170    0.813311
   11.5180    0.814920
   11.5190    0.816529
   11.5200    0.818137
   11.5210    0.819746
   11.5220    0.821355
   11.5230    0.822964
   11.5240    0.824573
   11.5250    0.826182
   11.5260    0.827791
   11.5270    0.829400
   11.5280    0.831008
   11.5290    0.832618
   11.5300    0.834226
   11.5310    0.835836
   11.5320    0.837444
   11.5330    0.839054
   11.5340    0.840663
   11.5350    0.842271
   11.5360    0.843880
   11.5370    0.845489
   11.5380    0.847098
   11.5390    0.848707
   11.5400    0.850278
   11.5410    0.851746
   11.5420    0.853167
   11.5430    0.854570
   11.5440    0.855953
   11.5450    0.857286
   11.5460    0.858561
   11.5470    0.859805
   11.5480    0.861038
   11.5490    0.862271
   11.5500    0.863484
   11.5510    0.864673
   11.5520    0.865822
   11.5530    0.866954
   11.5540    0.868075
   11.5550    0.869172
   11.5560    0.870269
   11.5570    0.871366
   11.5580    0.872463
   11.5590    0.873530
   11.5600    0.874596
   11.5610    0.875662
   11.5620    0.876727
   11.5630    0.877793
   11.5640    0.878859
   11.5650    0.879925
   11.5660    0.880982
   11.5670    0.882010
   11.5680    0.883038
   11.5690    0.884066
   11.5700    0.885094
   11.5710    0.886122
   11.5720    0.887150
   11.5730    0.888177
   11.5740    0.889205
   11.5750    0.890233
   11.5760    0.891261
   11.5770    0.892289
   11.5780    0.893317
   11.5790    0.894345
   11.5800    0.895373
   11.5810    0.896400
   11.5820    0.897428
   11.5830    0.898456
   11.5840    0.899484
   11.5850    0.900512
   11.5860    0.901540
   11.5870    0.902568
   11.5880    0.903596
   11.5890    0.904623
   11.5900    0.905651
   11.5910    0.906679
   11.5920    0.907707
   11.5930    0.908735
   11.5940    0.909763
   11.5950    0.910791
   11.5960    0.911819
   11.5970    0.912846
   11.5980    0.913874
   11.5990    0.914902
   11.6000    0.915930
   11.6010    0.916958
   11.6020    0.917986
   11.6030    0.919014
   11.6040    0.920042
   11.6050    0.921040
   11.6060    0.921958
   11.6070    0.922836
   11.6080    0.923698
   11.6090    0.924544
   11.6100    0.925344
   11.6110    0.926090
   11.6120    0.926806
   11.6130    0.927513
   11.6140    0.928220
   11.6150    0.928907
   11.6160    0.929570
   11.6170    0.930191
   11.6180    0.930794
   11.6190    0.931385
   11.6200    0.931950
   11.6210    0.932516
   11.6220    0.933081
   11.6230    0.933647
   11.6240    0.934174
   11.6250    0.934699
   11.6260    0.935225
   11.6270    0.935750
   11.6280    0.936276
   11.6290    0.936801
   11.6300    0.937327
   11.6310    0.937845
   11.6320    0.938336
   11.6330    0.938827
   11.6340    0.939318
   11.6350    0.939809
   11.6360    0.940299
   11.6370    0.940790
   11.6380    0.941281
   11.6390    0.941772
   11.6400    0.942263
   11.6410    0.942754
   11.6420    0.943245
   11.6430    0.943737
   11.6440    0.944228
   11.6450    0.944719
   11.6460    0.945210
   11.6470    0.945701
   11.6480    0.946192
   11.6490    0.946683
   11.6500    0.947174
   11.6510    0.947664
   11.6520    0.948156
   11.6530    0.948647
   11.6540    0.949138
   11.6550    0.949629
   11.6560    0.950119
   11.6570    0.950611
   11.6580    0.951101
   11.6590    0.951592
   11.6600    0.952083
   11.6610    0.952574
   11.6620    0.953065
   11.6630    0.953556
   11.6640    0.954047
   11.6650    0.954538
   11.6660    0.955029
   11.6670    0.955520
   11.6680    0.956011
   11.6690    0.956502
   11.6700    0.956960
   11.6710    0.957350
   11.6720    0.957702
   11.6730    0.958038
   11.6740    0.958358
   11.6750    0.958641
   11.6760    0.958877
   11.6770    0.959085
   11.6780    0.959282
   11.6790    0.959479
   11.6800    0.959654
   11.6810    0.959802
   11.6820    0.959910
   11.6830    0.960004
   11.6840    0.960090
   11.6850    0.960160
   11.6860    0.960230
   11.6870    0.960300
   11.6880    0.960370
   11.6890    0.960407
   11.6900    0.960443
   11.6910    0.960479
   11.6920    0.960515
   11.6930    0.960551
   11.6940    0.960587
   11.6950    0.960623
   11.6960    0.960655
   11.6970    0.960670
   11.6980    0.960685
   11.6990    0.960699
   11.7000    0.960714
   11.7010    0.960729
   11.7020    0.960744
   11.7030    0.960759
   11.7040    0.960774
   11.7050    0.960789
   11.7060    0.960804
   11.7070    0.960819
   11.7080    0.960834
   11.7090    0.960848
   11.7100    0.960863
   11.7110    0.960878
   11.7120    0.960893
   11.7130    0.960908
   11.7140    0.960923
   11.7150    0.960938
   11.7160    0.960953
   11.7170    0.960968
   11.7180    0.960983
   11.7190    0.960997
   11.7200    0.961012
   11.7210    0.961027
   11.7220    0.961042
   11.7230    0.961057
   11.7240    0.961072
   11.7250    0.961087
   11.7260    0.961102
   11.7270    0.961117
   11.7280    0.961132
   11.7290    0.961146
   11.7300    0.961161
   11.7310    0.961176
   11.7320    0.961191
   11.7330    0.961206
   11.7340    0.961221
   11.7350    0.961255
   11.7360    0.961295
   11.7370    0.961349
   11.7380    0.961410
   11.7390    0.961481
   11.7400    0.961556
   11.7410    0.961638
   11.7420    0.961731
   11.7430    0.961828
   11.7440    0.961925
   11.7450    0.962030
   11.7460    0.962145
   11.7470    0.962269
   11.7480    0.962390
   11.7490    0.962510
   11.7500    0.962628
   11.7510    0.962745
   11.7520    0.962863
   11.7530    0.962981
   11.7540    0.963116
   11.7550    0.963252
   11.7560    0.963387
   11.7570    0.963523
   11.7580    0.963659
   11.7590    0.963795
   11.7600    0.963931
   11.7610    0.964065
   11.7620    0.964194
   11.7630    0.964323
   11.7640    0.964452
   11.7650    0.964581
   11.7660    0.964709
   11.7670    0.964838
   11.7680    0.964967
   11.7690    0.965096
   11.7700    0.965225
   11.7710    0.965354
   11.7720    0.965482
   11.7730    0.965611
   11.7740    0.965740
   11.7750    0.965869
   11.7760    0.965998
   11.7770    0.966127
   11.7780    0.966255
   11.7790    0.966384
   11.7800    0.966513
   11.7810    0.966642
   11.7820    0.966771
   11.7830    0.966900
   11.7840    0.967029
   11.7850    0.967157
   11.7860    0.967286
   11.7870    0.967415
   11.7880    0.967544
   11.7890    0.967673
   11.7900    0.967802
   11.7910    0.967930
   11.7920    0.968059
   11.7930    0.968188
   11.7940    0.968317
   11.7950    0.968446
   11.7960    0.968575
   11.7970    0.968703
   11.7980    0.968832
   11.7990    0.968961
   11.8000    0.969109
   11.8010    0.969336
   11.8020    0.969593
   11.8030    0.969859
   11.8040    0.970136
   11.8050    0.970447
   11.8060    0.970795
   11.8070    0.971158
   11.8080    0.971525
   11.8090    0.971893
   11.8100    0.972267
   11.8110    0.972651
   11.8120    0.973056
   11.8130    0.973473
   11.8140    0.973900
   11.8150    0.974347
   11.8160    0.974794
   11.8170    0.975241
   11.8180    0.975688
   11.8190    0.976150
   11.8200    0.976612
   11.8210    0.977074
   11.8220    0.977536
   11.8230    0.977999
   11.8240    0.978461
   11.8250    0.978923
   11.8260    0.979393
   11.8270    0.979894
   11.8280    0.980394
   11.8290    0.980895
   11.8300    0.981395
   11.8310    0.981895
   11.8320    0.982396
   11.8330    0.982896
   11.8340    0.983397
   11.8350    0.983897
   11.8360    0.984397
   11.8370    0.984898
   11.8380    0.985398
   11.8390    0.985899
   11.8400    0.986399
   11.8410    0.986899
   11.8420    0.987400
   11.8430    0.987900
   11.8440    0.988401
   11.8450    0.988901
   11.8460    0.989402
   11.8470    0.989902
   11.8480    0.990402
   11.8490    0.990903
   11.8500    0.991403
   11.8510    0.991904
   11.8520    0.992404
   11.8530    0.992904
   11.8540    0.993405
   11.8550    0.993905
   11.8560    0.994406
   11.8570    0.994906
   11.8580    0.995406
   11.8590    0.995907
   11.8600    0.996407
   11.8610    0.996908
   11.8620    0.997408
   11.8630    0.997908
   11.8640    0.998409
   11.8650    0.998849
   11.8660    0.999169
   11.8670    0.999421
   11.8680    0.999643
   11.8690    0.999834
   11.8700    0.999960
   11.8710    1.000000
   11.8720    0.999989
   11.8730    0.999960
   11.8740    0.999931
   11.8750    0.999863
   11.8760    0.999749
   11.8770    0.999560
   11.8780    0.999346
   11.8790    0.999115
   11.8800    0.998851
   11.8810    0.998587
   11.8820    0.998323
   11.8830    0.998059
   11.8840    0.997726
   11.8850    0.997390
   11.8860    0.997054
   11.8870    0.996718
   11.8880    0.996382
   11.8890    0.996046
   11.8900    0.995710
   11.8910    0.995364
   11.8920    0.994982
   11.8930    0.994600
   11.8940    0.994218
   11.8950    0.993836
