NPP VIIRS Band Averaged Relative Spectral Response from Northrop Grumman October 2011 release to govt team.
    WL(um)      RSR
   11.0290    0.005011
   11.0300    0.005109
   11.0310    0.005213
   11.0320    0.005317
   11.0330    0.005421
   11.0340    0.005525
   11.0350    0.005628
   11.0360    0.005734
   11.0370    0.005846
   11.0380    0.005959
   11.0390    0.006085
   11.0400    0.006211
   11.0410    0.006338
   11.0420    0.006464
   11.0430    0.006590
   11.0440    0.006717
   11.0450    0.006843
   11.0460    0.006973
   11.0470    0.007108
   11.0480    0.007243
   11.0490    0.007378
   11.0500    0.007513
   11.0510    0.007648
   11.0520    0.007783
   11.0530    0.007918
   11.0540    0.008053
   11.0550    0.008188
   11.0560    0.008323
   11.0570    0.008458
   11.0580    0.008593
   11.0590    0.008728
   11.0600    0.008863
   11.0610    0.008998
   11.0620    0.009134
   11.0630    0.009269
   11.0640    0.009404
   11.0650    0.009539
   11.0660    0.009674
   11.0670    0.009809
   11.0680    0.009944
   11.0690    0.010079
   11.0700    0.010214
   11.0710    0.010349
   11.0720    0.010484
   11.0730    0.010619
   11.0740    0.010754
   11.0750    0.010889
   11.0760    0.011024
   11.0770    0.011159
   11.0780    0.011294
   11.0790    0.011429
   11.0800    0.011564
   11.0810    0.011699
   11.0820    0.011834
   11.0830    0.011969
   11.0840    0.012104
   11.0850    0.012239
   11.0860    0.012374
   11.0870    0.012509
   11.0880    0.012644
   11.0890    0.012779
   11.0900    0.012914
   11.0910    0.013049
   11.0920    0.013184
   11.0930    0.013319
   11.0940    0.013455
   11.0950    0.013590
   11.0960    0.013725
   11.0970    0.013860
   11.0980    0.013995
   11.0990    0.014130
   11.1000    0.014265
   11.1010    0.014400
   11.1020    0.014535
   11.1030    0.014670
   11.1040    0.014805
   11.1050    0.014940
   11.1060    0.015075
   11.1070    0.015210
   11.1080    0.015345
   11.1090    0.015480
   11.1100    0.015615
   11.1110    0.015750
   11.1120    0.015885
   11.1130    0.016020
   11.1140    0.016155
   11.1150    0.016290
   11.1160    0.016425
   11.1170    0.016560
   11.1180    0.016695
   11.1190    0.016830
   11.1200    0.016965
   11.1210    0.017100
   11.1220    0.017235
   11.1230    0.017370
   11.1240    0.017505
   11.1250    0.017640
   11.1260    0.017776
   11.1270    0.017911
   11.1280    0.018046
   11.1290    0.018181
   11.1300    0.018316
   11.1310    0.018451
   11.1320    0.018586
   11.1330    0.018721
   11.1340    0.018856
   11.1350    0.018991
   11.1360    0.019126
   11.1370    0.019261
   11.1380    0.019396
   11.1390    0.019531
   11.1400    0.019666
   11.1410    0.019801
   11.1420    0.019936
   11.1430    0.020071
   11.1440    0.020206
   11.1450    0.020341
   11.1460    0.020484
   11.1470    0.020640
   11.1480    0.020795
   11.1490    0.020981
   11.1500    0.021200
   11.1510    0.021420
   11.1520    0.021644
   11.1530    0.021885
   11.1540    0.022133
   11.1550    0.022414
   11.1560    0.022733
   11.1570    0.023062
   11.1580    0.023424
   11.1590    0.023789
   11.1600    0.024160
   11.1610    0.024547
   11.1620    0.024934
   11.1630    0.025322
   11.1640    0.025709
   11.1650    0.026096
   11.1660    0.026490
   11.1670    0.026900
   11.1680    0.027317
   11.1690    0.027772
   11.1700    0.028228
   11.1710    0.028684
   11.1720    0.029140
   11.1730    0.029596
   11.1740    0.030051
   11.1750    0.030507
   11.1760    0.030975
   11.1770    0.031457
   11.1780    0.031940
   11.1790    0.032423
   11.1800    0.032905
   11.1810    0.033388
   11.1820    0.033871
   11.1830    0.034353
   11.1840    0.034836
   11.1850    0.035319
   11.1860    0.035801
   11.1870    0.036284
   11.1880    0.036767
   11.1890    0.037249
   11.1900    0.037732
   11.1910    0.038215
   11.1920    0.038697
   11.1930    0.039180
   11.1940    0.039663
   11.1950    0.040145
   11.1960    0.040628
   11.1970    0.041111
   11.1980    0.041593
   11.1990    0.042076
   11.2000    0.042559
   11.2010    0.043041
   11.2020    0.043524
   11.2030    0.044007
   11.2040    0.044489
   11.2050    0.044972
   11.2060    0.045454
   11.2070    0.045937
   11.2080    0.046420
   11.2090    0.046902
   11.2100    0.047385
   11.2110    0.047884
   11.2120    0.048413
   11.2130    0.048942
   11.2140    0.049536
   11.2150    0.050204
   11.2160    0.050873
   11.2170    0.051551
   11.2180    0.052268
   11.2190    0.052999
   11.2200    0.053802
   11.2210    0.054688
   11.2220    0.055597
   11.2230    0.056577
   11.2240    0.057566
   11.2250    0.058567
   11.2260    0.059602
   11.2270    0.060638
   11.2280    0.061673
   11.2290    0.062709
   11.2300    0.063744
   11.2310    0.064792
   11.2320    0.065877
   11.2330    0.066976
   11.2340    0.068157
   11.2350    0.069339
   11.2360    0.070521
   11.2370    0.071703
   11.2380    0.072886
   11.2390    0.074068
   11.2400    0.075250
   11.2410    0.076456
   11.2420    0.077695
   11.2430    0.078933
   11.2440    0.080172
   11.2450    0.081411
   11.2460    0.082649
   11.2470    0.083888
   11.2480    0.085126
   11.2490    0.086365
   11.2500    0.087603
   11.2510    0.088842
   11.2520    0.090080
   11.2530    0.091319
   11.2540    0.092557
   11.2550    0.093796
   11.2560    0.095034
   11.2570    0.096273
   11.2580    0.097512
   11.2590    0.098750
   11.2600    0.099989
   11.2610    0.101227
   11.2620    0.102466
   11.2630    0.103704
   11.2640    0.104943
   11.2650    0.106181
   11.2660    0.107420
   11.2670    0.108658
   11.2680    0.109897
   11.2690    0.111135
   11.2700    0.112374
   11.2710    0.113613
   11.2720    0.114851
   11.2730    0.116090
   11.2740    0.117328
   11.2750    0.118567
   11.2760    0.119837
   11.2770    0.121163
   11.2780    0.122490
   11.2790    0.123939
   11.2800    0.125533
   11.2810    0.127126
   11.2820    0.128738
   11.2830    0.130421
   11.2840    0.132135
   11.2850    0.133985
   11.2860    0.135997
   11.2870    0.138052
   11.2880    0.140245
   11.2890    0.142454
   11.2900    0.144685
   11.2910    0.146983
   11.2920    0.149282
   11.2930    0.151581
   11.2940    0.153880
   11.2950    0.156179
   11.2960    0.158501
   11.2970    0.160892
   11.2980    0.163310
   11.2990    0.165881
   11.3000    0.168457
   11.3010    0.171032
   11.3020    0.173607
   11.3030    0.176181
   11.3040    0.178756
   11.3050    0.181331
   11.3060    0.183949
   11.3070    0.186626
   11.3080    0.189303
   11.3090    0.191981
   11.3100    0.194658
   11.3110    0.197335
   11.3120    0.200012
   11.3130    0.202689
   11.3140    0.205366
   11.3150    0.208043
   11.3160    0.210721
   11.3170    0.213398
   11.3180    0.216075
   11.3190    0.218752
   11.3200    0.221429
   11.3210    0.224106
   11.3220    0.226783
   11.3230    0.229461
   11.3240    0.232138
   11.3250    0.234815
   11.3260    0.237492
   11.3270    0.240169
   11.3280    0.242846
   11.3290    0.245523
   11.3300    0.248201
   11.3310    0.250878
   11.3320    0.253555
   11.3330    0.256232
   11.3340    0.258909
   11.3350    0.261586
   11.3360    0.264263
   11.3370    0.266941
   11.3380    0.269618
   11.3390    0.272295
   11.3400    0.274972
   11.3410    0.277674
   11.3420    0.280419
   11.3430    0.283164
   11.3440    0.286000
   11.3450    0.288947
   11.3460    0.291893
   11.3470    0.294853
   11.3480    0.297867
   11.3490    0.300904
   11.3500    0.304042
   11.3510    0.307305
   11.3520    0.310602
   11.3530    0.314006
   11.3540    0.317422
   11.3550    0.320854
   11.3560    0.324339
   11.3570    0.327823
   11.3580    0.331308
   11.3590    0.334792
   11.3600    0.338277
   11.3610    0.341777
   11.3620    0.345325
   11.3630    0.348892
   11.3640    0.352567
   11.3650    0.356245
   11.3660    0.359922
   11.3670    0.363600
   11.3680    0.367277
   11.3690    0.370955
   11.3700    0.374633
   11.3710    0.378336
   11.3720    0.382073
   11.3730    0.385811
   11.3740    0.389548
   11.3750    0.393285
   11.3760    0.397023
   11.3770    0.400760
   11.3780    0.404497
   11.3790    0.408235
   11.3800    0.411972
   11.3810    0.415709
   11.3820    0.419447
   11.3830    0.423184
   11.3840    0.426922
   11.3850    0.430659
   11.3860    0.434396
   11.3870    0.438134
   11.3880    0.441871
   11.3890    0.445608
   11.3900    0.449346
   11.3910    0.453083
   11.3920    0.456820
   11.3930    0.460558
   11.3940    0.464295
   11.3950    0.468032
   11.3960    0.471770
   11.3970    0.475507
   11.3980    0.479245
   11.3990    0.482982
   11.4000    0.486719
   11.4010    0.490457
   11.4020    0.494194
   11.4030    0.497931
   11.4040    0.501669
   11.4050    0.505406
   11.4060    0.509134
   11.4070    0.512845
   11.4080    0.516554
   11.4090    0.520222
   11.4100    0.523846
   11.4110    0.527469
   11.4120    0.531086
   11.4130    0.534677
   11.4140    0.538258
   11.4150    0.541796
   11.4160    0.545286
   11.4170    0.548763
   11.4180    0.552199
   11.4190    0.555630
   11.4200    0.559053
   11.4210    0.562451
   11.4220    0.565849
   11.4230    0.569247
   11.4240    0.572645
   11.4250    0.576042
   11.4260    0.579430
   11.4270    0.582785
   11.4280    0.586131
   11.4290    0.589408
   11.4300    0.592683
   11.4310    0.595958
   11.4320    0.599233
   11.4330    0.602508
   11.4340    0.605783
   11.4350    0.609058
   11.4360    0.612306
   11.4370    0.615519
   11.4380    0.618732
   11.4390    0.621945
   11.4400    0.625158
   11.4410    0.628371
   11.4420    0.631584
   11.4430    0.634797
   11.4440    0.638010
   11.4450    0.641223
   11.4460    0.644436
   11.4470    0.647649
   11.4480    0.650862
   11.4490    0.654075
   11.4500    0.657288
   11.4510    0.660501
   11.4520    0.663714
   11.4530    0.666927
   11.4540    0.670140
   11.4550    0.673353
   11.4560    0.676566
   11.4570    0.679778
   11.4580    0.682991
   11.4590    0.686204
   11.4600    0.689417
   11.4610    0.692630
   11.4620    0.695843
   11.4630    0.699056
   11.4640    0.702269
   11.4650    0.705482
   11.4660    0.708695
   11.4670    0.711908
   11.4680    0.715121
   11.4690    0.718334
   11.4700    0.721547
   11.4710    0.724723
   11.4720    0.727834
   11.4730    0.730945
   11.4740    0.733916
   11.4750    0.736721
   11.4760    0.739526
   11.4770    0.742310
   11.4780    0.745011
   11.4790    0.747677
   11.4800    0.750188
   11.4810    0.752519
   11.4820    0.754802
   11.4830    0.756936
   11.4840    0.759051
   11.4850    0.761144
   11.4860    0.763162
   11.4870    0.765181
   11.4880    0.767199
   11.4890    0.769217
   11.4900    0.771236
   11.4910    0.773230
   11.4920    0.775150
   11.4930    0.777042
   11.4940    0.778769
   11.4950    0.780492
   11.4960    0.782215
   11.4970    0.783938
   11.4980    0.785661
   11.4990    0.787384
   11.5000    0.789107
   11.5010    0.790783
   11.5020    0.792398
   11.5030    0.794012
   11.5040    0.795626
   11.5050    0.797240
   11.5060    0.798854
   11.5070    0.800468
   11.5080    0.802082
   11.5090    0.803696
   11.5100    0.805311
   11.5110    0.806925
   11.5120    0.808539
   11.5130    0.810153
   11.5140    0.811767
   11.5150    0.813381
   11.5160    0.814995
   11.5170    0.816609
   11.5180    0.818224
   11.5190    0.819838
   11.5200    0.821452
   11.5210    0.823066
   11.5220    0.824680
   11.5230    0.826294
   11.5240    0.827908
   11.5250    0.829522
   11.5260    0.831137
   11.5270    0.832752
   11.5280    0.834365
   11.5290    0.835980
   11.5300    0.837593
   11.5310    0.839208
   11.5320    0.840822
   11.5330    0.842435
   11.5340    0.844051
   11.5350    0.845665
   11.5360    0.847265
   11.5370    0.848841
   11.5380    0.850418
   11.5390    0.851944
   11.5400    0.853410
   11.5410    0.854876
   11.5420    0.856335
   11.5430    0.857763
   11.5440    0.859180
   11.5450    0.860543
   11.5460    0.861840
   11.5470    0.863121
   11.5480    0.864350
   11.5490    0.865573
   11.5500    0.866788
   11.5510    0.867975
   11.5520    0.869162
   11.5530    0.870350
   11.5540    0.871537
   11.5550    0.872725
   11.5560    0.873904
   11.5570    0.875058
   11.5580    0.876204
   11.5590    0.877291
   11.5600    0.878377
   11.5610    0.879463
   11.5620    0.880548
   11.5630    0.881634
   11.5640    0.882720
   11.5650    0.883806
   11.5660    0.884876
   11.5670    0.885926
   11.5680    0.886975
   11.5690    0.888024
   11.5700    0.889074
   11.5710    0.890123
   11.5720    0.891172
   11.5730    0.892222
   11.5740    0.893271
   11.5750    0.894321
   11.5760    0.895370
   11.5770    0.896419
   11.5780    0.897469
   11.5790    0.898518
   11.5800    0.899568
   11.5810    0.900617
   11.5820    0.901666
   11.5830    0.902716
   11.5840    0.903765
   11.5850    0.904815
   11.5860    0.905864
   11.5870    0.906913
   11.5880    0.907963
   11.5890    0.909012
   11.5900    0.910062
   11.5910    0.911111
   11.5920    0.912160
   11.5930    0.913210
   11.5940    0.914259
   11.5950    0.915309
   11.5960    0.916358
   11.5970    0.917407
   11.5980    0.918457
   11.5990    0.919506
   11.6000    0.920556
   11.6010    0.921594
   11.6020    0.922612
   11.6030    0.923629
   11.6040    0.924606
   11.6050    0.925530
   11.6060    0.926454
   11.6070    0.927372
   11.6080    0.928266
   11.6090    0.929150
   11.6100    0.929985
   11.6110    0.930758
   11.6120    0.931514
   11.6130    0.932214
   11.6140    0.932907
   11.6150    0.933591
   11.6160    0.934243
   11.6170    0.934895
   11.6180    0.935548
   11.6190    0.936200
   11.6200    0.936852
   11.6210    0.937494
   11.6220    0.938106
   11.6230    0.938708
   11.6240    0.939243
   11.6250    0.939776
   11.6260    0.940309
   11.6270    0.940842
   11.6280    0.941375
   11.6290    0.941909
   11.6300    0.942442
   11.6310    0.942957
   11.6320    0.943449
   11.6330    0.943940
   11.6340    0.944432
   11.6350    0.944923
   11.6360    0.945415
   11.6370    0.945906
   11.6380    0.946398
   11.6390    0.946889
   11.6400    0.947381
   11.6410    0.947873
   11.6420    0.948364
   11.6430    0.948856
   11.6440    0.949347
   11.6450    0.949839
   11.6460    0.950330
   11.6470    0.950822
   11.6480    0.951314
   11.6490    0.951805
   11.6500    0.952297
   11.6510    0.952788
   11.6520    0.953280
   11.6530    0.953771
   11.6540    0.954263
   11.6550    0.954754
   11.6560    0.955246
   11.6570    0.955738
   11.6580    0.956229
   11.6590    0.956721
   11.6600    0.957212
   11.6610    0.957704
   11.6620    0.958195
   11.6630    0.958687
   11.6640    0.959179
   11.6650    0.959670
   11.6660    0.960151
   11.6670    0.960611
   11.6680    0.961072
   11.6690    0.961488
   11.6700    0.961852
   11.6710    0.962216
   11.6720    0.962574
   11.6730    0.962906
   11.6740    0.963228
   11.6750    0.963497
   11.6760    0.963702
   11.6770    0.963891
   11.6780    0.964029
   11.6790    0.964161
   11.6800    0.964285
   11.6810    0.964387
   11.6820    0.964489
   11.6830    0.964591
   11.6840    0.964693
   11.6850    0.964794
   11.6860    0.964889
   11.6870    0.964964
   11.6880    0.965030
   11.6890    0.965055
   11.6900    0.965079
   11.6910    0.965104
   11.6920    0.965129
   11.6930    0.965153
   11.6940    0.965178
   11.6950    0.965202
   11.6960    0.965218
   11.6970    0.965223
   11.6980    0.965228
   11.6990    0.965233
   11.7000    0.965238
   11.7010    0.965243
   11.7020    0.965248
   11.7030    0.965253
   11.7040    0.965258
   11.7050    0.965263
   11.7060    0.965267
   11.7070    0.965272
   11.7080    0.965277
   11.7090    0.965282
   11.7100    0.965287
   11.7110    0.965292
   11.7120    0.965297
   11.7130    0.965302
   11.7140    0.965307
   11.7150    0.965312
   11.7160    0.965316
   11.7170    0.965321
   11.7180    0.965326
   11.7190    0.965331
   11.7200    0.965336
   11.7210    0.965341
   11.7220    0.965346
   11.7230    0.965351
   11.7240    0.965356
   11.7250    0.965361
   11.7260    0.965365
   11.7270    0.965370
   11.7280    0.965375
   11.7290    0.965380
   11.7300    0.965385
   11.7310    0.965394
   11.7320    0.965410
   11.7330    0.965425
   11.7340    0.965456
   11.7350    0.965502
   11.7360    0.965549
   11.7370    0.965598
   11.7380    0.965655
   11.7390    0.965714
   11.7400    0.965784
   11.7410    0.965867
   11.7420    0.965953
   11.7430    0.966050
   11.7440    0.966147
   11.7450    0.966248
   11.7460    0.966359
   11.7470    0.966471
   11.7480    0.966583
   11.7490    0.966695
   11.7500    0.966807
   11.7510    0.966922
   11.7520    0.967049
   11.7530    0.967178
   11.7540    0.967335
   11.7550    0.967493
   11.7560    0.967651
   11.7570    0.967809
   11.7580    0.967967
   11.7590    0.968125
   11.7600    0.968283
   11.7610    0.968450
   11.7620    0.968629
   11.7630    0.968809
   11.7640    0.968988
   11.7650    0.969167
   11.7660    0.969347
   11.7670    0.969526
   11.7680    0.969705
   11.7690    0.969885
   11.7700    0.970064
   11.7710    0.970243
   11.7720    0.970423
   11.7730    0.970602
   11.7740    0.970782
   11.7750    0.970961
   11.7760    0.971140
   11.7770    0.971320
   11.7780    0.971499
   11.7790    0.971678
   11.7800    0.971858
   11.7810    0.972037
   11.7820    0.972216
   11.7830    0.972396
   11.7840    0.972575
   11.7850    0.972754
   11.7860    0.972934
   11.7870    0.973113
   11.7880    0.973293
   11.7890    0.973472
   11.7900    0.973651
   11.7910    0.973831
   11.7920    0.974010
   11.7930    0.974189
   11.7940    0.974369
   11.7950    0.974548
   11.7960    0.974733
   11.7970    0.974929
   11.7980    0.975126
   11.7990    0.975342
   11.8000    0.975584
   11.8010    0.975825
   11.8020    0.976070
   11.8030    0.976329
   11.8040    0.976593
   11.8050    0.976880
   11.8060    0.977189
   11.8070    0.977504
   11.8080    0.977835
   11.8090    0.978168
   11.8100    0.978503
   11.8110    0.978845
   11.8120    0.979187
   11.8130    0.979529
   11.8140    0.979871
   11.8150    0.980213
   11.8160    0.980557
   11.8170    0.980909
   11.8180    0.981263
   11.8190    0.981636
   11.8200    0.982009
   11.8210    0.982383
   11.8220    0.982756
   11.8230    0.983130
   11.8240    0.983503
   11.8250    0.983876
   11.8260    0.984257
   11.8270    0.984647
   11.8280    0.985038
   11.8290    0.985428
   11.8300    0.985818
   11.8310    0.986208
   11.8320    0.986599
   11.8330    0.986989
   11.8340    0.987379
   11.8350    0.987769
   11.8360    0.988160
   11.8370    0.988550
   11.8380    0.988940
   11.8390    0.989330
   11.8400    0.989721
   11.8410    0.990111
   11.8420    0.990501
   11.8430    0.990891
   11.8440    0.991282
   11.8450    0.991672
   11.8460    0.992062
   11.8470    0.992452
   11.8480    0.992843
   11.8490    0.993233
   11.8500    0.993623
   11.8510    0.994013
   11.8520    0.994404
   11.8530    0.994794
   11.8540    0.995184
   11.8550    0.995574
   11.8560    0.995965
   11.8570    0.996355
   11.8580    0.996745
   11.8590    0.997135
   11.8600    0.997526
   11.8610    0.997901
   11.8620    0.998249
   11.8630    0.998598
   11.8640    0.998889
   11.8650    0.999112
   11.8660    0.999335
   11.8670    0.999549
   11.8680    0.999729
   11.8690    0.999893
   11.8700    0.999990
   11.8710    1.000000
   11.8720    0.999987
   11.8730    0.999889
   11.8740    0.999781
   11.8750    0.999662
   11.8760    0.999505
   11.8770    0.999348
   11.8780    0.999190
   11.8790    0.999033
   11.8800    0.998876
   11.8810    0.998706
   11.8820    0.998496
   11.8830    0.998269
   11.8840    0.997958
   11.8850    0.997645
   11.8860    0.997332
   11.8870    0.997019
   11.8880    0.996706
   11.8890    0.996393
   11.8900    0.996080
   11.8910    0.995746
   11.8920    0.995384
